PE UV       SUBTECH     SPECTRUM    ASCII       PEDS        4.00        
   -1
Sample15.Sample.ASC
22/07/11
05:33:18.00
22/07/11
05:33:18.00
Michael Matus
NG11 #68 Schott 50 mm x 50 mm 2 mm
250.000000
1
Lambda 1050+
1060L2011032
PerkinElmer UV WinLab 7.1.0.68 / 2.02.11 Lambda 900 UV/VIS/NIR, May 23 2018 11:23:04

0
0
3350/servo 1800.8/1 860.8/1
0
0
UV/VIS
1
1
1
CommonBeamDepol,RBeamAtt,SBeamAtt,uv/vis/nir detector, TDS WB InGaAs Detector
0
0
0
0
Program
Program
3350/servo 1800.8/1 860.8/1
3350/0.2 1800.8/0.2 860.8/0.2
3350/0.2 1800.8/0.2 860.8/0.2
0
3350/1.00 1800.8/5.00
 
 
 
0
 
860.8
319.2
1800.8 860.8
Front
25
on
S:100 R:100
 
0
0
0
 
0
 
 
 
0
 
 
0
0
0
0
0
 
 
 
 
0
0


0
0
#HDR
-1
-1
#GR
nm
A
1.0
0.0
1500.000000
-10.000000
126
8
10.000000
0.244742
#DATA
1500.000000	0.295000
1490.000000	0.298543
1480.000000	0.302443
1470.000000	0.306482
1460.000000	0.311181
1450.000000	0.316059
1440.000000	0.321556
1430.000000	0.327244
1420.000000	0.333357
1410.000000	0.339228
1400.000000	0.344168
1390.000000	0.348330
1380.000000	0.352951
1370.000000	0.358737
1360.000000	0.364781
1350.000000	0.370853
1340.000000	0.377596
1330.000000	0.384063
1320.000000	0.390031
1310.000000	0.396304
1300.000000	0.402557
1290.000000	0.408574
1280.000000	0.414470
1270.000000	0.419968
1260.000000	0.425595
1250.000000	0.430886
1240.000000	0.435548
1230.000000	0.439996
1220.000000	0.444527
1210.000000	0.448569
1200.000000	0.452302
1190.000000	0.455644
1180.000000	0.458286
1170.000000	0.460957
1160.000000	0.463259
1150.000000	0.464975
1140.000000	0.466560
1130.000000	0.467669
1120.000000	0.468292
1110.000000	0.468325
1100.000000	0.468360
1090.000000	0.467467
1080.000000	0.466558
1070.000000	0.465065
1060.000000	0.463294
1050.000000	0.461045
1040.000000	0.458315
1030.000000	0.455301
1020.000000	0.451797
1010.000000	0.447566
1000.000000	0.443194
990.000000	0.438319
980.000000	0.433209
970.000000	0.427776
960.000000	0.421976
950.000000	0.415312
940.000000	0.409031
930.000000	0.402377
920.000000	0.395132
910.000000	0.387368
900.000000	0.378212
890.000000	0.372791
880.000000	0.365391
870.000000	0.354960
860.000000	0.345216
850.000000	0.338013
840.000000	0.329679
830.000000	0.320989
820.000000	0.313068
810.000000	0.305121
800.000000	0.296175
790.000000	0.287578
780.000000	0.279974
770.000000	0.271856
760.000000	0.264837
750.000000	0.258138
740.000000	0.252727
730.000000	0.247824
720.000000	0.245191
710.000000	0.244742
700.000000	0.247647
690.000000	0.253743
680.000000	0.261892
670.000000	0.270281
660.000000	0.275701
650.000000	0.277142
640.000000	0.275363
630.000000	0.273095
620.000000	0.271663
610.000000	0.272181
600.000000	0.272036
590.000000	0.270001
580.000000	0.263808
570.000000	0.256015
560.000000	0.250175
550.000000	0.246992
540.000000	0.246617
530.000000	0.248810
520.000000	0.251999
510.000000	0.254836
500.000000	0.256606
490.000000	0.256851
480.000000	0.255166
470.000000	0.253420
460.000000	0.256515
450.000000	0.273888
440.000000	0.290148
430.000000	0.284424
420.000000	0.292581
410.000000	0.290475
400.000000	0.277712
390.000000	0.317850
380.000000	0.483449
370.000000	0.430394
360.000000	0.521324
350.000000	0.766587
340.000000	1.255825
330.000000	2.249828
320.000000	4.123202
310.000000	4.943968
300.000000	5.684778
290.000000	10.000000
280.000000	4.523419
270.000000	10.000000
260.000000	10.000000
250.000000	5.986299
