##TITLE= blank 0,1 %
##JCAMP-DX= 4.24
##DATA TYPE= UV/VIS SPECTRUM
##ORIGIN= Exported PE Spectrum Data File
##OWNER= Michael Matus
##DATE= 22/07/14
##TIME= 10:37:48.00
##DELTAX= -1.000000
##XUNITS= NANOMETERS
##YUNITS= TRANSMITTANCE
##XFACTOR= 1.00
##YFACTOR= 0.00000011920928955078
##FIRSTX= 900.00
##LASTX= 250.00
##NPOINTS= 651
##FIRSTY= 105.789461
##MAXY= 1.094540
##MINY= 0.945820
##XYDATA= (X++(Y..Y))
   900.000000   8874263   8808860   8722139   8861138   8821829  
   895.000000   8513487   8806776   8788849   8648821   8572016  
   890.000000   8797029   8842951   8712476   8635024   8918022  
   885.000000   8832483   8674428   8712343   8695784   8752405  
   880.000000   8557522   8819742   8838774   8631320   9013873  
   875.000000   9024082   8710160   8637323   8942840   8630391  
   870.000000   8576788   8919882   8958972   9181670   9038797  
   865.000000   8893167   8991135   8589059   8959486   9009044  
   860.000000   8813885   8190117   8679970   8215514   8631750  
   855.000000   8449421   8400703   8152064   8456635   8468665  
   850.000000   8661518   8494587   8370784   8691484   8143381  
   845.000000   8462506   8218644   8417918   8569143   8425996  
   840.000000   8224711   8412912   8203518   8220028   8325151  
   835.000000   8600292   8478356   8402658   8337911   8424252  
   830.000000   8357240   8546621   8408151   8404116   8269916  
   825.000000   8440908   8507974   8342744   8294012   8448623  
   820.000000   8499700   8461249   8345448   8399872   8390015  
   815.000000   8281402   8322531   8405776   8334196   8389069  
   810.000000   8448660   8320201   8439664   8530689   8401920  
   805.000000   8367864   8386954   8372657   8426184   8309215  
   800.000000   8363340   8390590   8405581   8467904   8399246  
   795.000000   8527068   8511802   8442645   8428200   8425117  
   790.000000   8384915   8472435   8398635   8381823   8529586  
   785.000000   8452740   8434628   8422192   8412872   8431407  
   780.000000   8448221   8329983   8467599   8473296   8348624  
   775.000000   8372964   8576512   8561278   8417109   8305043  
   770.000000   8341892   8520989   8493265   8377556   8389546  
   765.000000   8409414   8416598   8448473   8462977   8366610  
   760.000000   8331302   8436354   8554220   8506679   8384417  
   755.000000   8429449   8468480   8411221   8368872   8402222  
   750.000000   8404784   8358462   8332044   8466212   8439781  
   745.000000   8357726   8441957   8498034   8456221   8351469  
   740.000000   8279202   8345559   8355222   8348045   8422296  
   735.000000   8340407   8289983   8317756   8374735   8395595  
   730.000000   8304135   8259758   8402149   8420267   8258425  
   725.000000   8257328   8365551   8468396   8408208   8423687  
   720.000000   8484253   8385636   8386616   8392306   8407611  
   715.000000   8466506   8390333   8332801   8442524   8397131  
   710.000000   8362512   8402835   8399325   8329256   8338810  
   705.000000   8347256   8403995   8403208   8352142   8474570  
   700.000000   8584062   8428991   8414107   8429826   8526198  
   695.000000   8459792   8307604   8396546   8363187   8323929  
   690.000000   8332437   8470802   8396864   8326477   8259098  
   685.000000   8387086   8429949   8344525   8352947   8431180  
   680.000000   8456143   8424351   8438553   8509920   8382087  
   675.000000   8462926   8428895   8353208   8414770   8364945  
   670.000000   8364525   8386722   8383141   8416120   8510017  
   665.000000   8280542   8306830   8263248   8283692   8266341  
   660.000000   8336711   8487245   8414284   8386008   8427622  
   655.000000   8441745   8343576   8193292   8304877   8388681  
   650.000000   8387126   8358946   8501040   8376515   8358727  
   645.000000   8390096   8385313   8400148   8433961   8502377  
   640.000000   8380994   8264538   8359021   8391211   8333380  
   635.000000   8311845   8314841   8395758   8371488   8427627  
   630.000000   8452768   8413220   8364170   8298116   8462670  
   625.000000   8341169   8391312   8289597   8365285   8359060  
   620.000000   8413672   8368147   8387103   8320988   8423964  
   615.000000   8433487   8427958   8474960   8445933   8300538  
   610.000000   8490219   8416347   8406509   8406013   8281124  
   605.000000   8486242   8372499   8365402   8407242   8487238  
   600.000000   8429249   8368440   8499335   8470784   8361687  
   595.000000   8421152   8428617   8547750   8371507   8426328  
   590.000000   8502153   8406527   8285573   8423298   8550543  
   585.000000   8256728   8442625   8555656   8347327   8335850  
   580.000000   8272638   8302344   8402769   8291934   8385949  
   575.000000   8456507   8480038   8660915   8497696   8442170  
   570.000000   8299257   8371442   8513297   8410171   8319630  
   565.000000   8455751   8456900   8368913   8446782   8365561  
   560.000000   8305373   8406909   8436285   8377258   8349471  
   555.000000   8455765   8417676   8211137   8396841   8417729  
   550.000000   8412704   8429957   8333329   8465057   8430456  
   545.000000   8282146   8470065   8476926   8434746   8438245  
   540.000000   8460543   8421064   8407574   8392316   8462492  
   535.000000   8433349   8310685   8435110   8419505   8409211  
   530.000000   8350709   8476307   8517526   8342987   8322775  
   525.000000   8436056   8387050   8264856   8286038   8362969  
   520.000000   8347043   8238029   8351090   8460180   8418094  
   515.000000   8345896   8411842   8469891   8370709   8384181  
   510.000000   8457786   8405448   8349593   8449842   8438351  
   505.000000   8403115   8400485   8376873   8441581   8401530  
   500.000000   8333868   8386250   8415726   8383032   8399143  
   495.000000   8372566   8369065   8432383   8377655   8306387  
   490.000000   8358196   8368553   8330182   8383769   8442902  
   485.000000   8429669   8334323   8368897   8359763   8397146  
   480.000000   8423198   8429417   8513723   8409351   8368835  
   475.000000   8509757   8469382   8470580   8455752   8365943  
   470.000000   8373828   8405377   8336864   8384000   8303570  
   465.000000   8282731   8370824   8336695   8337123   8361085  
   460.000000   8378893   8424023   8435068   8436967   8355372  
   455.000000   8326124   8394825   8343335   8315999   8326591  
   450.000000   8318479   8297057   8325562   8337043   8403119  
   445.000000   8399587   8364293   8442522   8367164   8217139  
   440.000000   8447404   8403818   8373635   8350077   8348997  
   435.000000   8370559   8332292   8338858   8468681   8389158  
   430.000000   8346754   8374600   8497662   8520767   8396091  
   425.000000   8442482   8457645   8407306   8434574   8371746  
   420.000000   8429533   8411866   8252523   8275000   8465987  
   415.000000   8352928   8360560   8453439   8419385   8407428  
   410.000000   8347159   8325957   8347495   8358204   8436318  
   405.000000   8374506   8322940   8341814   8476542   8537578  
   400.000000   8531067   8302997   8313302   8416399   8272610  
   395.000000   8389011   8407727   8434377   8371682   8402364  
   390.000000   8398180   8400328   8288824   8343379   8402499  
   385.000000   8291579   8291567   8253399   8306246   8420009  
   380.000000   8279599   8413791   7934116   8488310   8429921  
   375.000000   8338843   8163732   8305752   8502358   8526633  
   370.000000   8427781   8413830   8511757   8332264   8526515  
   365.000000   8394680   8417281   8517619   8339865   8556773  
   360.000000   8418135   8388304   8353575   8447992   8482924  
   355.000000   8365012   8350263   8477937   8509440   8349390  
   350.000000   8380486   8468830   8395348   8408212   8412511  
   345.000000   8522229   8368956   8278646   8545649   8469095  
   340.000000   8267686   8373952   8487090   8475789   8337077  
   335.000000   8252659   8404623   8464818   8360771   8352898  
   330.000000   8535768   8381699   8413018   8490651   8528964  
   325.000000   8528127   8409898   8508350   8490492   8494141  
   320.000000   8552466   8430682   8446435   8398949   8409333  
   315.000000   8232733   8359534   8410482   8483385   8290888  
   310.000000   8287241   8312085   8395901   8450139   8440843  
   305.000000   8470315   8446955   8289459   8345301   8324446  
   300.000000   8415996   8330732   8332889   8409848   8339070  
   295.000000   8278263   8369924   8357972   8359809   8311778  
   290.000000   8373856   8386641   8320151   8363725   8495396  
   285.000000   8394629   8439388   8439278   8353146   8428989  
   280.000000   8362077   8300790   8418147   8466440   8368397  
   275.000000   8315336   8338220   8357081   8326170   8340942  
   270.000000   8404157   8363163   8324751   8353340   8433528  
   265.000000   8435907   8360898   8325670   8382381   8331918  
   260.000000   8307586   8457128   8444630   8355134   8343539  
   255.000000   8350989   8333355   8322836   8353843   8397290  
   250.000000   8373417  
##END= 
